# File: Integrate59.not
# NOTEA     = SDRPlay+Rectangular Horn Pi #2
# NOTEB     = Spectral Integration AIRSPY Test
# OBSERVER  = Science Aficionado
# DEVICE    = SDRPlay RSP1A
# DATADIR   = ../data/
# SITE      = SDRPlay+Rectangular Horn Pi #2
# CITY      = Green Bank
# REGION    = West Virginia
# COUNTRY   = US
# TELTYPE   = Bubble Wrap  Horn
# FRAME     = TOPO
# GAIN1     = 0.0
# GAIN2     = 12.0
# GAIN3     = 12.0
# GAIN4     = 0.0
# Count     = 1024
# CenterFreq= 1420000000.0
# Bandwidth = 9000000.0
# Duration  = 23.244792
# DeltaX    = 5859.375
# BUNIT     = Counts
# NCHAN     = 2048
# NSPEC     = 1
# NTIME     = 0
# NSAMPLES  = 0
# EPEAK     = 4.10875183718
# ERMS      = 0.995973393526
# EMJD      = 58568.808999981004 
# REFCHAN   = 1024.0
# REFSAMPL  = 256.0
# NAVE      = 500
# NMEDIAN   = 1024
# Fft_rate  = 5000
# UTC       = 2020-01-13 12:08:40.112603
# SECONDS   =       0.0000000000 
# LST       = 14:19:05.210
# AZ        = 180.0
# EL        = 80.0
# TELLON    = -79:50:22.920
# TELLAT    = +38:25:59.160
# RA        = 14:17:19.760
# DEC       = +28:36:56.500
# GALLON    = 42:25:33.90
# GALLAT    = +70:59:07.30
# ALT_SUN   = -05:25:28.5
# AZ_SUN    = +113:03:33.5
# ETAA      = 0.8
# ETAB      = 0.99
# POLANGLE  = 0.0
# TELSIZEAM = 1.0
# TELSIZEBM = 1.0
# AST_VERS  = 05.01
0000 1415502197 0.0300
0001 1415506591 0.0296
0002 1415510986 0.0296
0003 1415515380 0.0300
0004 1415519775 0.0297
0005 1415524169 0.0297
0006 1415528564 0.0300
0007 1415532958 0.0295
0008 1415537353 0.0294
0009 1415541748 0.0295
0010 1415546142 0.0295
0011 1415550537 0.0298
0012 1415554931 0.0303
0013 1415559326 0.0302
0014 1415563720 0.0297
0015 1415568115 0.0296
0016 1415572509 0.0295
0017 1415576904 0.0292
0018 1415581298 0.0294
0019 1415585693 0.0297
0020 1415590087 0.0294
0021 1415594482 0.0295
0022 1415598876 0.0295
0023 1415603271 0.0291
0024 1415607666 0.0290
0025 1415612060 0.0286
0026 1415616455 0.0284
0027 1415620849 0.0281
0028 1415625244 0.0276
0029 1415629638 0.0274
0030 1415634033 0.0270
0031 1415638427 0.0260
0032 1415642822 0.0255
0033 1415647216 0.0250
0034 1415651611 0.0243
0035 1415656005 0.0232
0036 1415660400 0.0225
0037 1415664794 0.0217
0038 1415669189 0.0205
0039 1415673583 0.0196
0040 1415677978 0.0181
0041 1415682373 0.0171
0042 1415686767 0.0157
0043 1415691162 0.0145
0044 1415695556 0.0130
0045 1415699951 0.0119
0046 1415704345 0.0106
0047 1415708740 0.0092
0048 1415713134 0.0081
0049 1415717529 0.0071
0050 1415721923 0.0061
0051 1415726318 0.0055
0052 1415730712 0.0051
0053 1415735107 0.0049
0054 1415739501 0.0052
0055 1415743896 0.0060
0056 1415748291 0.0073
0057 1415752685 0.0091
0058 1415757080 0.0118
0059 1415761474 0.0158
0060 1415765869 0.0204
0061 1415770263 0.0259
0062 1415774658 0.0333
0063 1415779052 0.0420
0064 1415783447 0.0516
0065 1415787841 0.0639
0066 1415792236 0.0792
0067 1415796630 0.0953
0068 1415801025 0.1135
0069 1415805419 0.1352
0070 1415809814 0.1616
0071 1415814208 0.1900
0072 1415818603 0.2225
0073 1415822998 0.2645
0074 1415827392 0.3077
0075 1415831787 0.3448
0076 1415836181 0.3956
0077 1415840576 0.4584
0078 1415844970 0.5214
0079 1415849365 0.5915
0080 1415853759 0.6616
0081 1415858154 0.7464
0082 1415862548 0.8377
0083 1415866943 0.9393
0084 1415871337 1.0502
0085 1415875732 1.1613
0086 1415880126 1.3053
0087 1415884521 1.4869
0088 1415888916 1.6095
0089 1415893310 1.7769
0090 1415897705 1.9459
0091 1415902099 2.1591
0092 1415906494 2.4108
0093 1415910888 2.6601
0094 1415915283 3.0777
0095 1415919677 3.3696
0096 1415924072 3.4974
0097 1415928466 3.8199
0098 1415932861 4.2059
0099 1415937255 4.5690
0100 1415941650 4.9799
0101 1415946044 5.4625
0102 1415950439 5.9169
0103 1415954833 6.4419
0104 1415959228 6.8929
0105 1415963623 7.5230
0106 1415968017 8.0465
0107 1415972412 8.7471
0108 1415976806 9.5835
0109 1415981201 11.5917
0110 1415985595 31.2106
0111 1415989990 20.8104
0112 1415994384 13.8280
0113 1415998779 17.4759
0114 1416003173 25.0306
0115 1416007568 16.4565
0116 1416011962 16.9037
0117 1416016357 17.3657
0118 1416020751 18.2648
0119 1416025146 19.5171
0120 1416029541 20.4578
0121 1416033935 21.5514
0122 1416038330 22.7307
0123 1416042724 23.8269
0124 1416047119 25.1539
0125 1416051513 26.6218
0126 1416055908 28.7284
0127 1416060302 29.7766
0128 1416064697 30.9551
0129 1416069091 32.9014
0130 1416073486 34.6724
0131 1416077880 36.5266
0132 1416082275 39.5041
0133 1416086669 41.9803
0134 1416091064 44.0117
0135 1416095458 46.5391
0136 1416099853 49.4358
0137 1416104248 50.5071
0138 1416108642 53.4824
0139 1416113037 57.0631
0140 1416117431 60.8684
0141 1416121826 64.4446
0142 1416126220 68.1318
0143 1416130615 71.5695
0144 1416135009 75.4300
0145 1416139404 78.7848
0146 1416143798 83.0655
0147 1416148193 86.2699
0148 1416152587 90.8522
0149 1416156982 95.3437
0150 1416161376 101.4722
0151 1416165771 104.6153
0152 1416170166 106.5300
0153 1416174560 110.4865
0154 1416178955 114.3576
0155 1416183349 117.5422
0156 1416187744 117.6513
0157 1416192138 120.4124
0158 1416196533 120.8830
0159 1416200927 123.8309
0160 1416205322 126.5333
0161 1416209716 126.5985
0162 1416214111 126.6159
0163 1416218505 129.6836
0164 1416222900 132.5813
0165 1416227294 131.6272
0166 1416231689 131.8957
0167 1416236083 133.3744
0168 1416240478 135.2760
0169 1416244873 135.5750
0170 1416249267 135.9649
0171 1416253662 138.1707
0172 1416258056 138.6555
0173 1416262451 140.2472
0174 1416266845 153.3368
0175 1416271240 148.7151
0176 1416275634 143.3129
0177 1416280029 144.6168
0178 1416284423 144.0397
0179 1416288818 144.4683
0180 1416293212 143.9511
0181 1416297607 147.5013
0182 1416302001 146.8834
0183 1416306396 149.2354
0184 1416310791 151.1314
0185 1416315185 150.7549
0186 1416319580 153.1297
0187 1416323974 154.9371
0188 1416328369 155.9914
0189 1416332763 158.1608
0190 1416337158 157.9000
0191 1416341552 159.7962
0192 1416345947 163.7059
0193 1416350341 163.4537
0194 1416354736 166.1293
0195 1416359130 163.6001
0196 1416363525 164.0767
0197 1416367919 164.7032
0198 1416372314 166.8681
0199 1416376708 163.0317
0200 1416381103 165.1768
0201 1416385498 164.3693
0202 1416389892 167.5731
0203 1416394287 166.7284
0204 1416398681 167.7518
0205 1416403076 170.5962
0206 1416407470 172.6561
0207 1416411865 171.3598
0208 1416416259 171.9615
0209 1416420654 173.7187
0210 1416425048 175.2141
0211 1416429443 174.2893
0212 1416433837 179.7115
0213 1416438232 177.6073
0214 1416442626 177.8644
0215 1416447021 177.5699
0216 1416451416 183.5279
0217 1416455810 186.8000
0218 1416460205 183.1902
0219 1416464599 188.0467
0220 1416468994 186.6296
0221 1416473388 187.2474
0222 1416477783 189.0057
0223 1416482177 192.0740
0224 1416486572 194.2437
0225 1416490966 192.8988
0226 1416495361 201.6247
0227 1416499755 196.0509
0228 1416504150 192.8628
0229 1416508544 195.0436
0230 1416512939 197.6990
0231 1416517333 195.7178
0232 1416521728 197.4585
0233 1416526123 197.0317
0234 1416530517 196.2150
0235 1416534912 192.7509
0236 1416539306 191.5453
0237 1416543701 189.7265
0238 1416548095 188.3595
0239 1416552490 187.1660
0240 1416556884 186.6228
0241 1416561279 183.7715
0242 1416565673 183.2378
0243 1416570068 182.8402
0244 1416574462 178.9018
0245 1416578857 176.6950
0246 1416583251 176.5305
0247 1416587646 178.6088
0248 1416592041 173.4437
0249 1416596435 169.5103
0250 1416600830 167.3250
0251 1416605224 169.2208
0252 1416609619 167.8814
0253 1416614013 166.5389
0254 1416618408 167.5051
0255 1416622802 166.1738
0256 1416627197 162.9474
0257 1416631591 164.8083
0258 1416635986 164.0331
0259 1416640380 167.9585
0260 1416644775 165.1309
0261 1416649169 172.0702
0262 1416653564 165.9637
0263 1416657958 161.4476
0264 1416662353 159.9134
0265 1416666748 162.7976
0266 1416671142 161.2506
0267 1416675537 164.3397
0268 1416679931 168.9657
0269 1416684326 162.0453
0270 1416688720 162.1266
0271 1416693115 164.1192
0272 1416697509 163.5495
0273 1416701904 161.1873
0274 1416706298 163.1800
0275 1416710693 171.4365
0276 1416715087 162.6380
0277 1416719482 162.2152
0278 1416723876 164.3120
0279 1416728271 162.9654
0280 1416732666 161.5276
0281 1416737060 162.5791
0282 1416741455 163.0337
0283 1416745849 162.5193
0284 1416750244 163.9681
0285 1416754638 162.1423
0286 1416759033 187.6081
0287 1416763427 199.3138
0288 1416767822 164.3994
0289 1416772216 169.3610
0290 1416776611 165.4370
0291 1416781005 163.0113
0292 1416785400 169.0018
0293 1416789794 164.3958
0294 1416794189 163.1913
0295 1416798583 162.9634
0296 1416802978 164.2069
0297 1416807373 165.9445
0298 1416811767 169.3307
0299 1416816162 167.7733
0300 1416820556 165.2757
0301 1416824951 165.9453
0302 1416829345 167.3341
0303 1416833740 170.2260
0304 1416838134 166.5904
0305 1416842529 164.7969
0306 1416846923 167.7951
0307 1416851318 169.4088
0308 1416855712 170.6740
0309 1416860107 178.3797
0310 1416864501 171.4051
0311 1416868896 167.7951
0312 1416873291 171.2305
0313 1416877685 170.5753
0314 1416882080 172.4829
0315 1416886474 170.2593
0316 1416890869 173.3320
0317 1416895263 175.2752
0318 1416899658 170.1008
0319 1416904052 170.1651
0320 1416908447 172.1548
0321 1416912841 172.7355
0322 1416917236 169.5839
0323 1416921630 170.1829
0324 1416926025 170.3863
0325 1416930419 171.7115
0326 1416934814 168.8916
0327 1416939208 170.9479
0328 1416943603 168.3648
0329 1416947998 168.7161
0330 1416952392 169.6547
0331 1416956787 168.3217
0332 1416961181 167.2469
0333 1416965576 169.2846
0334 1416969970 169.9491
0335 1416974365 168.6690
0336 1416978759 169.8351
0337 1416983154 173.1311
0338 1416987548 169.8475
0339 1416991943 168.8057
0340 1416996337 168.9411
0341 1417000732 171.0198
0342 1417005126 169.5287
0343 1417009521 167.3342
0344 1417013916 170.2674
0345 1417018310 171.9388
0346 1417022705 170.5261
0347 1417027099 171.7600
0348 1417031494 170.8416
0349 1417035888 170.8289
0350 1417040283 172.2166
0351 1417044677 170.0664
0352 1417049072 171.1256
0353 1417053466 167.9393
0354 1417057861 169.5745
0355 1417062255 174.0764
0356 1417066650 172.8911
0357 1417071044 173.1542
0358 1417075439 174.9173
0359 1417079833 171.1500
0360 1417084228 168.9586
0361 1417088623 168.5080
0362 1417093017 171.9196
0363 1417097412 171.8760
0364 1417101806 172.0381
0365 1417106201 172.1116
0366 1417110595 172.1166
0367 1417114990 175.8952
0368 1417119384 172.4764
0369 1417123779 173.4828
0370 1417128173 172.2056
0371 1417132568 174.5167
0372 1417136962 180.6273
0373 1417141357 175.0564
0374 1417145751 177.6647
0375 1417150146 173.6580
0376 1417154541 175.4796
0377 1417158935 172.8310
0378 1417163330 175.6088
0379 1417167724 183.7959
0380 1417172119 177.1253
0381 1417176513 175.3392
0382 1417180908 175.8216
0383 1417185302 176.4135
0384 1417189697 172.7682
0385 1417194091 175.2780
0386 1417198486 186.4266
0387 1417202880 206.1413
0388 1417207275 178.4215
0389 1417211669 176.3360
0390 1417216064 177.8440
0391 1417220458 175.3474
0392 1417224853 175.8205
0393 1417229248 175.9680
0394 1417233642 175.4157
0395 1417238037 175.4673
0396 1417242431 175.7530
0397 1417246826 176.9192
0398 1417251220 174.4457
0399 1417255615 175.9726
0400 1417260009 180.2057
0401 1417264404 176.5328
0402 1417268798 179.1996
0403 1417273193 178.2577
0404 1417277587 179.4873
0405 1417281982 176.0633
0406 1417286376 177.7273
0407 1417290771 179.4044
0408 1417295166 176.0416
0409 1417299560 176.3960
0410 1417303955 177.5399
0411 1417308349 175.1989
0412 1417312744 177.1391
0413 1417317138 179.9189
0414 1417321533 183.5407
0415 1417325927 180.6511
0416 1417330322 178.7486
0417 1417334716 178.8025
0418 1417339111 178.6313
0419 1417343505 180.8225
0420 1417347900 177.6486
0421 1417352294 179.3777
0422 1417356689 178.0680
0423 1417361083 186.9735
0424 1417365478 182.1081
0425 1417369873 180.0515
0426 1417374267 177.8228
0427 1417378662 182.0506
0428 1417383056 182.2289
0429 1417387451 177.1618
0430 1417391845 177.4522
0431 1417396240 182.0718
0432 1417400634 179.7546
0433 1417405029 176.0429
0434 1417409423 180.7584
0435 1417413818 183.6486
0436 1417418212 178.4945
0437 1417422607 179.5614
0438 1417427001 182.0758
0439 1417431396 183.7197
0440 1417435791 181.7321
0441 1417440185 181.9128
0442 1417444580 185.0105
0443 1417448974 179.8160
0444 1417453369 179.6326
0445 1417457763 180.5289
0446 1417462158 180.5331
0447 1417466552 179.5983
0448 1417470947 179.0865
0449 1417475341 179.5536
0450 1417479736 179.4385
0451 1417484130 177.6059
0452 1417488525 180.4911
0453 1417492919 178.3533
0454 1417497314 179.1642
0455 1417501708 185.3194
0456 1417506103 189.7589
0457 1417510498 181.6490
0458 1417514892 179.6864
0459 1417519287 180.0975
0460 1417523681 181.3355
0461 1417528076 179.0157
0462 1417532470 179.9983
0463 1417536865 177.7861
0464 1417541259 179.2161
0465 1417545654 178.8945
0466 1417550048 179.3574
0467 1417554443 180.6080
0468 1417558837 180.9052
0469 1417563232 181.3760
0470 1417567626 181.8688
0471 1417572021 179.6705
0472 1417576416 182.3171
0473 1417580810 181.1485
0474 1417585205 178.1051
0475 1417589599 178.3776
0476 1417593994 179.0458
0477 1417598388 179.4162
0478 1417602783 179.2892
0479 1417607177 182.2448
0480 1417611572 183.5257
0481 1417615966 180.1702
0482 1417620361 179.8975
0483 1417624755 181.9297
0484 1417629150 184.8802
0485 1417633544 181.8504
0486 1417637939 180.7971
0487 1417642333 183.2339
0488 1417646728 183.8670
0489 1417651123 186.2773
0490 1417655517 179.5854
0491 1417659912 178.6692
0492 1417664306 178.7941
0493 1417668701 180.7161
0494 1417673095 179.9807
0495 1417677490 178.6209
0496 1417681884 178.8845
0497 1417686279 184.1669
0498 1417690673 183.1240
0499 1417695068 179.5785
0500 1417699462 179.1151
0501 1417703857 180.3293
0502 1417708251 180.5329
0503 1417712646 181.3622
0504 1417717041 185.8746
0505 1417721435 184.6308
0506 1417725830 180.6712
0507 1417730224 184.0580
0508 1417734619 182.2810
0509 1417739013 187.4287
0510 1417743408 183.6247
0511 1417747802 186.7034
0512 1417752197 183.9907
0513 1417756591 181.6813
0514 1417760986 183.6111
0515 1417765380 179.9788
0516 1417769775 181.0104
0517 1417774169 184.6595
0518 1417778564 181.9597
0519 1417782958 181.5143
0520 1417787353 181.0366
0521 1417791748 183.8628
0522 1417796142 187.2086
0523 1417800537 183.1292
0524 1417804931 184.7286
0525 1417809326 187.4028
0526 1417813720 183.4002
0527 1417818115 183.0306
0528 1417822509 183.2219
0529 1417826904 182.1013
0530 1417831298 182.3973
0531 1417835693 181.7629
0532 1417840087 186.9487
0533 1417844482 182.4661
0534 1417848876 186.0958
0535 1417853271 184.8443
0536 1417857666 186.0601
0537 1417862060 187.1717
0538 1417866455 188.2270
0539 1417870849 192.8495
0540 1417875244 187.7432
0541 1417879638 187.5735
0542 1417884033 190.9961
0543 1417888427 187.5915
0544 1417892822 185.8604
0545 1417897216 185.6431
0546 1417901611 192.0610
0547 1417906005 186.9809
0548 1417910400 183.4503
0549 1417914794 186.4918
0550 1417919189 185.9611
0551 1417923583 184.5627
0552 1417927978 186.0869
0553 1417932373 190.1700
0554 1417936767 192.5525
0555 1417941162 188.6931
0556 1417945556 185.4328
0557 1417949951 185.2126
0558 1417954345 184.2984
0559 1417958740 190.4705
0560 1417963134 191.2070
0561 1417967529 186.4285
0562 1417971923 186.5000
0563 1417976318 187.9326
0564 1417980712 186.9757
0565 1417985107 187.2786
0566 1417989501 188.0398
0567 1417993896 193.6922
0568 1417998291 185.9025
0569 1418002685 187.4378
0570 1418007080 187.7227
0571 1418011474 187.3333
0572 1418015869 184.7083
0573 1418020263 192.4070
0574 1418024658 192.8231
0575 1418029052 184.7631
0576 1418033447 185.7593
0577 1418037841 189.5570
0578 1418042236 184.9675
0579 1418046630 185.5847
0580 1418051025 189.1553
0581 1418055419 190.0099
0582 1418059814 186.4754
0583 1418064208 186.3834
0584 1418068603 192.8510
0585 1418072998 187.5569
0586 1418077392 184.2243
0587 1418081787 187.6634
0588 1418086181 185.0529
0589 1418090576 183.3829
0590 1418094970 183.4871
0591 1418099365 184.7604
0592 1418103759 182.3385
0593 1418108154 183.5004
0594 1418112548 184.3282
0595 1418116943 184.7995
0596 1418121337 182.0777
0597 1418125732 185.6877
0598 1418130126 185.0271
0599 1418134521 185.4983
0600 1418138916 183.3309
0601 1418143310 183.7644
0602 1418147705 182.9057
0603 1418152099 182.6070
0604 1418156494 185.5167
0605 1418160888 184.2675
0606 1418165283 181.6756
0607 1418169677 182.6401
0608 1418174072 184.7101
0609 1418178466 184.2356
0610 1418182861 180.7342
0611 1418187255 182.5669
0612 1418191650 184.4611
0613 1418196044 181.0002
0614 1418200439 183.4513
0615 1418204833 183.6025
0616 1418209228 182.4139
0617 1418213623 183.0380
0618 1418218017 183.3734
0619 1418222412 185.9124
0620 1418226806 193.2709
0621 1418231201 183.5602
0622 1418235595 187.8724
0623 1418239990 190.1924
0624 1418244384 183.5568
0625 1418248779 182.1679
0626 1418253173 185.9228
0627 1418257568 185.2864
0628 1418261962 183.3421
0629 1418266357 184.3666
0630 1418270751 183.8262
0631 1418275146 181.9244
0632 1418279541 185.3279
0633 1418283935 186.6446
0634 1418288330 184.5368
0635 1418292724 184.0879
0636 1418297119 193.3418
0637 1418301513 189.1160
0638 1418305908 182.2078
0639 1418310302 183.1782
0640 1418314697 183.7888
0641 1418319091 184.3679
0642 1418323486 187.1039
0643 1418327880 184.1311
0644 1418332275 184.9834
0645 1418336669 183.1943
0646 1418341064 184.5128
0647 1418345458 185.0805
0648 1418349853 184.1568
0649 1418354248 185.3737
0650 1418358642 188.7562
0651 1418363037 188.4330
0652 1418367431 186.7982
0653 1418371826 189.0785
0654 1418376220 185.6954
0655 1418380615 186.6037
0656 1418385009 192.4862
0657 1418389404 194.1350
0658 1418393798 184.9436
0659 1418398193 183.6505
0660 1418402587 184.6960
0661 1418406982 188.8929
0662 1418411376 184.9476
0663 1418415771 185.4834
0664 1418420166 194.4984
0665 1418424560 192.0000
0666 1418428955 185.8683
0667 1418433349 185.4576
0668 1418437744 184.8467
0669 1418442138 187.5593
0670 1418446533 184.8719
0671 1418450927 184.2500
0672 1418455322 183.4938
0673 1418459716 185.1338
0674 1418464111 185.5498
0675 1418468505 186.5795
0676 1418472900 185.0103
0677 1418477294 190.1236
0678 1418481689 193.5562
0679 1418486083 187.6635
0680 1418490478 187.0871
0681 1418494873 188.3607
0682 1418499267 186.2543
0683 1418503662 186.0460
0684 1418508056 186.3375
0685 1418512451 191.3026
0686 1418516845 190.6421
0687 1418521240 185.9710
0688 1418525634 187.2771
0689 1418530029 187.7442
0690 1418534423 186.4950
0691 1418538818 187.2066
0692 1418543212 190.5351
0693 1418547607 185.1948
0694 1418552001 185.6910
0695 1418556396 186.1430
0696 1418560791 183.7034
0697 1418565185 186.0390
0698 1418569580 191.3418
0699 1418573974 196.1741
0700 1418578369 184.0697
0701 1418582763 185.2020
0702 1418587158 197.5110
0703 1418591552 188.2458
0704 1418595947 188.4686
0705 1418600341 191.1378
0706 1418604736 194.2589
0707 1418609130 186.6006
0708 1418613525 184.9176
0709 1418617919 193.3792
0710 1418622314 187.7910
0711 1418626708 183.1082
0712 1418631103 181.4962
0713 1418635498 184.3351
0714 1418639892 186.8092
0715 1418644287 186.1674
0716 1418648681 183.9792
0717 1418653076 185.2606
0718 1418657470 184.8604
0719 1418661865 189.8701
0720 1418666259 188.6878
0721 1418670654 182.9710
0722 1418675048 186.6209
0723 1418679443 184.8228
0724 1418683837 180.6655
0725 1418688232 180.0125
0726 1418692626 183.6515
0727 1418697021 183.4469
0728 1418701416 182.2362
0729 1418705810 184.9548
0730 1418710205 184.2568
0731 1418714599 188.8953
0732 1418718994 186.3360
0733 1418723388 190.9540
0734 1418727783 188.7224
0735 1418732177 186.3263
0736 1418736572 185.8734
0737 1418740966 186.2281
0738 1418745361 183.5206
0739 1418749755 182.7199
0740 1418754150 183.5501
0741 1418758544 185.6130
0742 1418762939 185.6880
0743 1418767333 185.5432
0744 1418771728 184.5817
0745 1418776123 184.1748
0746 1418780517 182.7119
0747 1418784912 188.9096
0748 1418789306 186.6607
0749 1418793701 185.8409
0750 1418798095 185.9984
0751 1418802490 188.5980
0752 1418806884 186.1959
0753 1418811279 185.9179
0754 1418815673 183.9716
0755 1418820068 185.5369
0756 1418824462 185.7048
0757 1418828857 188.6135
0758 1418833251 187.2112
0759 1418837646 186.6141
0760 1418842041 190.1697
0761 1418846435 203.3276
0762 1418850830 196.3889
0763 1418855224 185.7806
0764 1418859619 189.6820
0765 1418864013 203.4169
0766 1418868408 190.2040
0767 1418872802 189.8425
0768 1418877197 192.8768
0769 1418881591 188.3149
0770 1418885986 188.8792
0771 1418890380 190.4716
0772 1418894775 190.1438
0773 1418899169 189.6949
0774 1418903564 192.6846
0775 1418907958 201.6428
0776 1418912353 194.5850
0777 1418916748 189.4203
0778 1418921142 196.2713
0779 1418925537 202.4182
0780 1418929931 192.6182
0781 1418934326 190.8162
0782 1418938720 192.2559
0783 1418943115 190.0924
0784 1418947509 192.8986
0785 1418951904 195.4745
0786 1418956298 194.9260
0787 1418960693 193.0550
0788 1418965087 193.7609
0789 1418969482 197.0534
0790 1418973876 194.3268
0791 1418978271 193.8020
0792 1418982666 196.3418
0793 1418987060 198.2416
0794 1418991455 196.2594
0795 1418995849 194.7334
0796 1419000244 197.6441
0797 1419004638 195.5839
0798 1419009033 195.5213
0799 1419013427 198.2023
0800 1419017822 197.3656
0801 1419022216 197.7745
0802 1419026611 197.7941
0803 1419031005 200.9962
0804 1419035400 195.6068
0805 1419039794 196.7572
0806 1419044189 196.8532
0807 1419048583 197.1813
0808 1419052978 195.8994
0809 1419057373 197.7332
0810 1419061767 199.6080
0811 1419066162 198.4147
0812 1419070556 198.8680
0813 1419074951 197.3956
0814 1419079345 197.2977
0815 1419083740 196.4255
0816 1419088134 200.6975
0817 1419092529 213.0679
0818 1419096923 197.1267
0819 1419101318 197.1608
0820 1419105712 198.0574
0821 1419110107 196.5805
0822 1419114501 198.6780
0823 1419118896 200.2929
0824 1419123291 205.4020
0825 1419127685 197.9220
0826 1419132080 198.4413
0827 1419136474 201.9103
0828 1419140869 197.1519
0829 1419145263 199.9133
0830 1419149658 198.0623
0831 1419154052 206.9438
0832 1419158447 197.9871
0833 1419162841 201.3720
0834 1419167236 198.2381
0835 1419171630 196.0446
0836 1419176025 196.9696
0837 1419180419 204.3941
0838 1419184814 201.4049
0839 1419189208 198.0176
0840 1419193603 196.3870
0841 1419197998 196.4361
0842 1419202392 198.0269
0843 1419206787 196.9634
0844 1419211181 198.0014
0845 1419215576 204.3777
0846 1419219970 199.8425
0847 1419224365 199.2038
0848 1419228759 198.4999
0849 1419233154 197.7269
0850 1419237548 197.4068
0851 1419241943 195.2214
0852 1419246337 208.2823
0853 1419250732 257.0015
0854 1419255126 206.0449
0855 1419259521 195.8339
0856 1419263916 196.1091
0857 1419268310 195.3907
0858 1419272705 198.9709
0859 1419277099 198.8070
0860 1419281494 194.4977
0861 1419285888 194.2416
0862 1419290283 197.0077
0863 1419294677 193.5426
0864 1419299072 193.6235
0865 1419303466 195.6955
0866 1419307861 197.6767
0867 1419312255 194.2573
0868 1419316650 193.9339
0869 1419321044 195.6901
0870 1419325439 193.1016
0871 1419329833 195.3019
0872 1419334228 199.9419
0873 1419338623 199.3334
0874 1419343017 194.5436
0875 1419347412 195.1396
0876 1419351806 193.4412
0877 1419356201 191.7384
0878 1419360595 193.0235
0879 1419364990 193.6859
0880 1419369384 192.7368
0881 1419373779 191.3435
0882 1419378173 197.9060
0883 1419382568 199.3805
0884 1419386962 194.3728
0885 1419391357 194.7485
0886 1419395751 198.5930
0887 1419400146 198.7552
0888 1419404541 195.1332
0889 1419408935 199.2292
0890 1419413330 197.3746
0891 1419417724 194.6900
0892 1419422119 195.4008
0893 1419426513 197.3147
0894 1419430908 195.1859
0895 1419435302 193.0645
0896 1419439697 194.8100
0897 1419444091 200.1407
0898 1419448486 198.1438
0899 1419452880 204.4248
0900 1419457275 202.6701
0901 1419461669 199.9877
0902 1419466064 195.1975
0903 1419470458 197.3684
0904 1419474853 199.2172
0905 1419479248 198.4617
0906 1419483642 196.7929
0907 1419488037 202.4422
0908 1419492431 198.5433
0909 1419496826 197.8075
0910 1419501220 199.1189
0911 1419505615 205.9126
0912 1419510009 202.5047
0913 1419514404 199.6605
0914 1419518798 205.7777
0915 1419523193 207.7603
0916 1419527587 199.3205
0917 1419531982 198.5290
0918 1419536376 200.3584
0919 1419540771 204.7240
0920 1419545166 200.6520
0921 1419549560 203.3572
0922 1419553955 199.8659
0923 1419558349 201.7565
0924 1419562744 203.2191
0925 1419567138 201.4060
0926 1419571533 199.7221
0927 1419575927 206.1521
0928 1419580322 209.9484
0929 1419584716 203.1751
0930 1419589111 202.2625
0931 1419593505 203.5939
0932 1419597900 204.3658
0933 1419602294 202.4108
0934 1419606689 200.8183
0935 1419611083 202.0214
0936 1419615478 203.6096
0937 1419619873 205.1051
0938 1419624267 207.4603
0939 1419628662 205.1964
0940 1419633056 208.2985
0941 1419637451 209.2277
0942 1419641845 211.2194
0943 1419646240 204.4052
0944 1419650634 204.8458
0945 1419655029 204.8391
0946 1419659423 205.8639
0947 1419663818 205.1914
0948 1419668212 215.9896
0949 1419672607 209.2808
0950 1419677001 206.2423
0951 1419681396 205.7263
0952 1419685791 207.0406
0953 1419690185 203.0414
0954 1419694580 207.8267
0955 1419698974 206.2071
0956 1419703369 211.3504
0957 1419707763 208.3609
0958 1419712158 203.9311
0959 1419716552 203.7508
0960 1419720947 205.3330
0961 1419725341 202.1198
0962 1419729736 207.3783
0963 1419734130 206.5453
0964 1419738525 207.6294
0965 1419742919 207.4564
0966 1419747314 205.8736
0967 1419751708 206.8583
0968 1419756103 203.7476
0969 1419760498 206.3449
0970 1419764892 210.0536
0971 1419769287 204.3272
0972 1419773681 201.6320
0973 1419778076 202.8098
0974 1419782470 204.0265
0975 1419786865 204.8590
0976 1419791259 200.4225
0977 1419795654 203.4073
0978 1419800048 201.7695
0979 1419804443 203.6633
0980 1419808837 204.3000
0981 1419813232 202.5994
0982 1419817626 201.0353
0983 1419822021 202.4890
0984 1419826416 205.9838
0985 1419830810 201.7014
0986 1419835205 197.8702
0987 1419839599 198.7345
0988 1419843994 199.2603
0989 1419848388 197.6715
0990 1419852783 200.4671
0991 1419857177 195.7639
0992 1419861572 197.5067
0993 1419865966 197.3816
0994 1419870361 196.9111
0995 1419874755 197.4709
0996 1419879150 195.2976
0997 1419883544 202.9149
0998 1419887939 201.8867
0999 1419892333 194.5016
1000 1419896728 194.9255
1001 1419901123 194.1765
1002 1419905517 195.2783
1003 1419909912 193.6892
1004 1419914306 200.2891
1005 1419918701 197.3378
1006 1419923095 194.1693
1007 1419927490 196.0296
1008 1419931884 194.4338
1009 1419936279 194.6155
1010 1419940673 194.7716
1011 1419945068 197.8319
1012 1419949462 196.1848
1013 1419953857 196.6999
1014 1419958251 201.7205
1015 1419962646 192.9889
1016 1419967041 193.8961
1017 1419971435 193.2368
1018 1419975830 193.9226
1019 1419980224 194.5626
1020 1419984619 192.8769
1021 1419989013 192.7360
1022 1419993408 193.7614
1023 1419997802 190.3537
1024 1420002197 191.5884
1025 1420006591 196.2768
1026 1420010986 199.1399
1027 1420015380 197.0146
1028 1420019775 199.8462
1029 1420024169 198.6041
1030 1420028564 205.0218
1031 1420032958 197.8253
1032 1420037353 209.5325
1033 1420041748 197.3639
1034 1420046142 195.3473
1035 1420050537 195.8563
1036 1420054931 201.9552
1037 1420059326 202.9422
1038 1420063720 193.8698
1039 1420068115 199.9794
1040 1420072509 196.3050
1041 1420076904 199.3241
1042 1420081298 202.0932
1043 1420085693 197.5506
1044 1420090087 195.5316
1045 1420094482 195.6204
1046 1420098876 201.0264
1047 1420103271 205.2469
1048 1420107666 195.1407
1049 1420112060 198.8535
1050 1420116455 196.8293
1051 1420120849 194.5471
1052 1420125244 195.9200
1053 1420129638 205.0609
1054 1420134033 200.7652
1055 1420138427 199.7892
1056 1420142822 199.8161
1057 1420147216 202.8944
1058 1420151611 200.2993
1059 1420156005 198.0880
1060 1420160400 196.1748
1061 1420164794 199.7022
1062 1420169189 198.5722
1063 1420173583 200.0268
1064 1420177978 199.0945
1065 1420182373 198.4371
1066 1420186767 197.8742
1067 1420191162 208.2132
1068 1420195556 200.9691
1069 1420199951 199.5305
1070 1420204345 203.5605
1071 1420208740 207.2640
1072 1420213134 199.9529
1073 1420217529 200.2034
1074 1420221923 202.1201
1075 1420226318 203.5659
1076 1420230712 201.7176
1077 1420235107 201.3487
1078 1420239501 203.5504
1079 1420243896 216.4837
1080 1420248291 210.1834
1081 1420252685 209.9193
1082 1420257080 202.7050
1083 1420261474 201.6904
1084 1420265869 203.6574
1085 1420270263 207.1864
1086 1420274658 204.5464
1087 1420279052 210.1946
1088 1420283447 206.9589
1089 1420287841 201.4662
1090 1420292236 201.9706
1091 1420296630 203.9927
1092 1420301025 200.0829
1093 1420305419 203.8394
1094 1420309814 207.1727
1095 1420314208 216.7953
1096 1420318603 217.8981
1097 1420322998 202.6912
1098 1420327392 207.0461
1099 1420331787 206.2900
1100 1420336181 206.9663
1101 1420340576 211.3096
1102 1420344970 215.3949
1103 1420349365 202.0721
1104 1420353759 201.9548
1105 1420358154 206.8200
1106 1420362548 201.9798
1107 1420366943 201.2821
1108 1420371337 209.4889
1109 1420375732 211.0169
1110 1420380126 199.7347
1111 1420384521 200.7700
1112 1420388916 210.9700
1113 1420393310 203.6933
1114 1420397705 201.0806
1115 1420402099 202.1513
1116 1420406494 202.3194
1117 1420410888 200.3983
1118 1420415283 199.9181
1119 1420419677 198.8660
1120 1420424072 199.9909
1121 1420428466 200.7383
1122 1420432861 206.8364
1123 1420437255 208.9690
1124 1420441650 202.5958
1125 1420446044 199.5730
1126 1420450439 199.1521
1127 1420454833 196.3326
1128 1420459228 197.8348
1129 1420463623 196.7337
1130 1420468017 196.4745
1131 1420472412 194.9531
1132 1420476806 197.1220
1133 1420481201 192.8783
1134 1420485595 195.1499
1135 1420489990 195.5567
1136 1420494384 198.1048
1137 1420498779 203.7325
1138 1420503173 196.0901
1139 1420507568 195.0914
1140 1420511962 195.9418
1141 1420516357 196.5068
1142 1420520751 192.0166
1143 1420525146 195.0231
1144 1420529541 193.8999
1145 1420533935 200.4720
1146 1420538330 192.5800
1147 1420542724 192.2172
1148 1420547119 191.7894
1149 1420551513 192.3088
1150 1420555908 194.4887
1151 1420560302 196.9512
1152 1420564697 192.4244
1153 1420569091 195.0564
1154 1420573486 193.5469
1155 1420577880 192.0895
1156 1420582275 192.0717
1157 1420586669 196.8625
1158 1420591064 191.9332
1159 1420595458 193.3365
1160 1420599853 193.0843
1161 1420604248 201.3510
1162 1420608642 196.8297
1163 1420613037 189.5268
1164 1420617431 195.5899
1165 1420621826 194.0687
1166 1420626220 193.7869
1167 1420630615 193.8996
1168 1420635009 189.7439
1169 1420639404 189.1971
1170 1420643798 194.4352
1171 1420648193 222.2857
1172 1420652587 198.8125
1173 1420656982 190.7302
1174 1420661376 195.6433
1175 1420665771 205.0868
1176 1420670166 195.0517
1177 1420674560 193.1443
1178 1420678955 199.3494
1179 1420683349 193.0980
1180 1420687744 189.7560
1181 1420692138 191.3761
1182 1420696533 191.9260
1183 1420700927 190.1414
1184 1420705322 190.9953
1185 1420709716 191.6517
1186 1420714111 191.0423
1187 1420718505 191.8802
1188 1420722900 192.0629
1189 1420727294 192.3631
1190 1420731689 197.0771
1191 1420736083 194.6321
1192 1420740478 207.8208
1193 1420744873 195.9084
1194 1420749267 194.2916
1195 1420753662 196.6942
1196 1420758056 196.9362
1197 1420762451 192.3332
1198 1420766845 196.6160
1199 1420771240 199.5037
1200 1420775634 196.4391
1201 1420780029 194.3106
1202 1420784423 195.2984
1203 1420788818 197.2884
1204 1420793212 196.1713
1205 1420797607 199.3416
1206 1420802001 206.6865
1207 1420806396 202.0468
1208 1420810791 195.9513
1209 1420815185 198.4859
1210 1420819580 207.2018
1211 1420823974 206.1622
1212 1420828369 196.0155
1213 1420832763 199.3883
1214 1420837158 199.0495
1215 1420841552 196.5841
1216 1420845947 196.6149
1217 1420850341 198.3677
1218 1420854736 196.2659
1219 1420859130 202.4133
1220 1420863525 208.4497
1221 1420867919 199.9087
1222 1420872314 198.1574
1223 1420876708 205.0838
1224 1420881103 204.2585
1225 1420885498 200.5055
1226 1420889892 203.1147
1227 1420894287 218.5970
1228 1420898681 200.7245
1229 1420903076 197.5036
1230 1420907470 202.3253
1231 1420911865 201.1543
1232 1420916259 198.8273
1233 1420920654 201.0965
1234 1420925048 206.9666
1235 1420929443 199.1383
1236 1420933837 197.5585
1237 1420938232 200.1778
1238 1420942626 198.4823
1239 1420947021 198.3456
1240 1420951416 200.2357
1241 1420955810 200.2568
1242 1420960205 203.5634
1243 1420964599 204.3372
1244 1420968994 203.7008
1245 1420973388 197.7417
1246 1420977783 198.2287
1247 1420982177 202.6779
1248 1420986572 206.3213
1249 1420990966 199.0773
1250 1420995361 196.3132
1251 1420999755 205.5168
1252 1421004150 202.0730
1253 1421008544 197.1349
1254 1421012939 198.6149
1255 1421017333 199.0049
1256 1421021728 200.9019
1257 1421026123 199.4292
1258 1421030517 196.6752
1259 1421034912 197.3986
1260 1421039306 201.3740
1261 1421043701 198.1439
1262 1421048095 200.8770
1263 1421052490 193.7409
1264 1421056884 195.0459
1265 1421061279 195.3795
1266 1421065673 197.1272
1267 1421070068 195.4084
1268 1421074462 196.3818
1269 1421078857 196.5186
1270 1421083251 195.7910
1271 1421087646 198.0135
1272 1421092041 198.7739
1273 1421096435 193.8010
1274 1421100830 194.1892
1275 1421105224 199.7407
1276 1421109619 211.8117
1277 1421114013 198.5771
1278 1421118408 193.6225
1279 1421122802 195.7979
1280 1421127197 194.7597
1281 1421131591 193.7204
1282 1421135986 194.1620
1283 1421140380 191.5418
1284 1421144775 195.5876
1285 1421149169 194.9806
1286 1421153564 192.1153
1287 1421157958 190.8847
1288 1421162353 194.4558
1289 1421166748 195.5321
1290 1421171142 197.4069
1291 1421175537 191.9770
1292 1421179931 199.7213
1293 1421184326 205.4418
1294 1421188720 191.6393
1295 1421193115 194.2711
1296 1421197509 197.3960
1297 1421201904 194.0592
1298 1421206298 189.8558
1299 1421210693 193.5914
1300 1421215087 192.3978
1301 1421219482 193.4769
1302 1421223876 191.5959
1303 1421228271 197.6909
1304 1421232666 197.4884
1305 1421237060 193.3681
1306 1421241455 192.1812
1307 1421245849 191.9012
1308 1421250244 190.1262
1309 1421254638 202.7031
1310 1421259033 203.5680
1311 1421263427 193.3958
1312 1421267822 191.1404
1313 1421272216 193.0679
1314 1421276611 191.8670
1315 1421281005 190.5796
1316 1421285400 190.0828
1317 1421289794 198.8223
1318 1421294189 201.4223
1319 1421298583 233.0007
1320 1421302978 199.5455
1321 1421307373 195.9125
1322 1421311767 191.0609
1323 1421316162 190.3770
1324 1421320556 191.8260
1325 1421324951 193.1548
1326 1421329345 192.2516
1327 1421333740 192.9676
1328 1421338134 193.1265
1329 1421342529 193.7200
1330 1421346923 195.3355
1331 1421351318 198.2479
1332 1421355712 195.5547
1333 1421360107 193.1978
1334 1421364501 199.5975
1335 1421368896 193.1523
1336 1421373291 190.5752
1337 1421377685 192.6788
1338 1421382080 192.1963
1339 1421386474 190.0837
1340 1421390869 189.5581
1341 1421395263 192.9253
1342 1421399658 197.8632
1343 1421404052 188.9742
1344 1421408447 194.6524
1345 1421412841 198.2135
1346 1421417236 192.3659
1347 1421421630 190.8391
1348 1421426025 194.9681
1349 1421430419 192.5454
1350 1421434814 195.5345
1351 1421439208 191.8408
1352 1421443603 193.3731
1353 1421447998 190.5829
1354 1421452392 192.5493
1355 1421456787 193.7225
1356 1421461181 194.9620
1357 1421465576 193.5347
1358 1421469970 204.8403
1359 1421474365 202.6475
1360 1421478759 192.5242
1361 1421483154 191.9572
1362 1421487548 198.3479
1363 1421491943 196.8704
1364 1421496337 197.5586
1365 1421500732 195.8261
1366 1421505126 193.2193
1367 1421509521 192.3061
1368 1421513916 189.7205
1369 1421518310 194.0229
1370 1421522705 191.4030
1371 1421527099 194.0052
1372 1421531494 196.8345
1373 1421535888 200.0697
1374 1421540283 194.8759
1375 1421544677 193.7001
1376 1421549072 192.4363
1377 1421553466 192.2191
1378 1421557861 190.3274
1379 1421562255 193.3538
1380 1421566650 192.9346
1381 1421571044 191.2048
1382 1421575439 192.1172
1383 1421579833 191.4917
1384 1421584228 190.9125
1385 1421588623 195.3633
1386 1421593017 197.2890
1387 1421597412 204.5158
1388 1421601806 190.4892
1389 1421606201 191.9080
1390 1421610595 192.9386
1391 1421614990 194.8322
1392 1421619384 190.7949
1393 1421623779 191.9375
1394 1421628173 191.7552
1395 1421632568 194.7872
1396 1421636962 193.0858
1397 1421641357 192.9177
1398 1421645751 191.7141
1399 1421650146 191.4104
1400 1421654541 195.2633
1401 1421658935 195.3530
1402 1421663330 190.8499
1403 1421667724 191.3432
1404 1421672119 195.1871
1405 1421676513 192.7847
1406 1421680908 191.1625
1407 1421685302 195.2225
1408 1421689697 191.9771
1409 1421694091 189.6255
1410 1421698486 190.0857
1411 1421702880 190.3875
1412 1421707275 189.3325
1413 1421711669 188.4541
1414 1421716064 192.5506
1415 1421720458 192.5732
1416 1421724853 189.5408
1417 1421729248 189.4296
1418 1421733642 191.8057
1419 1421738037 190.4914
1420 1421742431 189.8332
1421 1421746826 191.2690
1422 1421751220 190.8793
1423 1421755615 192.0536
1424 1421760009 205.9750
1425 1421764404 191.8343
1426 1421768798 188.9679
1427 1421773193 188.8163
1428 1421777587 195.3725
1429 1421781982 193.0099
1430 1421786376 194.3551
1431 1421790771 190.1370
1432 1421795166 192.5780
1433 1421799560 190.3733
1434 1421803955 190.6344
1435 1421808349 194.3098
1436 1421812744 197.0692
1437 1421817138 192.7608
1438 1421821533 194.9926
1439 1421825927 197.0942
1440 1421830322 195.2059
1441 1421834716 190.2876
1442 1421839111 194.2126
1443 1421843505 190.5972
1444 1421847900 187.9414
1445 1421852294 189.9584
1446 1421856689 189.2061
1447 1421861083 189.6987
1448 1421865478 193.1720
1449 1421869873 193.4642
1450 1421874267 191.1330
1451 1421878662 189.6495
1452 1421883056 195.3793
1453 1421887451 195.6280
1454 1421891845 192.6344
1455 1421896240 190.8642
1456 1421900634 196.8922
1457 1421905029 196.3140
1458 1421909423 192.6417
1459 1421913818 194.7738
1460 1421918212 196.6658
1461 1421922607 193.6130
1462 1421927001 194.1845
1463 1421931396 196.8231
1464 1421935791 189.8726
1465 1421940185 195.0244
1466 1421944580 196.5356
1467 1421948974 197.3938
1468 1421953369 191.1979
1469 1421957763 196.6988
1470 1421962158 201.0148
1471 1421966552 197.1161
1472 1421970947 194.1337
1473 1421975341 201.0610
1474 1421979736 199.4757
1475 1421984130 196.7525
1476 1421988525 198.5618
1477 1421992919 224.8849
1478 1421997314 222.9103
1479 1422001708 344.2695
1480 1422006103 242.6179
1481 1422010498 229.8239
1482 1422014892 198.2235
1483 1422019287 197.3467
1484 1422023681 205.6835
1485 1422028076 199.1999
1486 1422032470 193.8676
1487 1422036865 192.3700
1488 1422041259 192.4297
1489 1422045654 206.2853
1490 1422050048 207.9223
1491 1422054443 200.0126
1492 1422058837 194.7976
1493 1422063232 192.2213
1494 1422067626 196.7578
1495 1422072021 193.7192
1496 1422076416 192.2036
1497 1422080810 194.9815
1498 1422085205 207.2621
1499 1422089599 200.0545
1500 1422093994 193.5352
1501 1422098388 195.7736
1502 1422102783 196.7446
1503 1422107177 190.1197
1504 1422111572 207.1240
1505 1422115966 214.0480
1506 1422120361 196.5054
1507 1422124755 194.4856
1508 1422129150 198.2098
1509 1422133544 200.6260
1510 1422137939 194.0331
1511 1422142333 192.3194
1512 1422146728 197.6718
1513 1422151123 189.1508
1514 1422155517 189.6531
1515 1422159912 188.1329
1516 1422164306 190.2289
1517 1422168701 190.9287
1518 1422173095 203.9571
1519 1422177490 201.1985
1520 1422181884 192.6688
1521 1422186279 190.5029
1522 1422190673 197.5638
1523 1422195068 193.8162
1524 1422199462 187.1322
1525 1422203857 196.1594
1526 1422208251 195.4326
1527 1422212646 190.6394
1528 1422217041 188.3696
1529 1422221435 192.7124
1530 1422225830 190.5218
1531 1422230224 188.5075
1532 1422234619 189.2861
1533 1422239013 188.5616
1534 1422243408 189.1341
1535 1422247802 191.2129
1536 1422252197 189.3239
1537 1422256591 187.1728
1538 1422260986 186.3353
1539 1422265380 195.9021
1540 1422269775 196.3873
1541 1422274169 187.3867
1542 1422278564 189.7515
1543 1422282958 189.3059
1544 1422287353 190.9867
1545 1422291748 189.3993
1546 1422296142 186.9006
1547 1422300537 187.0009
1548 1422304931 185.9259
1549 1422309326 186.0012
1550 1422313720 241.5378
1551 1422318115 415.3997
1552 1422322509 211.3412
1553 1422326904 194.3825
1554 1422331298 191.3571
1555 1422335693 197.7266
1556 1422340087 189.1490
1557 1422344482 185.8056
1558 1422348876 185.5483
1559 1422353271 189.6502
1560 1422357666 185.7983
1561 1422362060 188.0708
1562 1422366455 190.9605
1563 1422370849 191.4415
1564 1422375244 188.0311
1565 1422379638 184.8499
1566 1422384033 185.4492
1567 1422388427 195.1909
1568 1422392822 192.0147
1569 1422397216 186.2999
1570 1422401611 188.3613
1571 1422406005 202.4947
1572 1422410400 190.8233
1573 1422414794 185.1344
1574 1422419189 191.3605
1575 1422423583 187.5009
1576 1422427978 187.7890
1577 1422432373 185.4818
1578 1422436767 185.9032
1579 1422441162 185.0396
1580 1422445556 194.5123
1581 1422449951 193.2487
1582 1422454345 188.7058
1583 1422458740 185.7609
1584 1422463134 189.1784
1585 1422467529 187.1488
1586 1422471923 186.1857
1587 1422476318 186.1907
1588 1422480712 189.0567
1589 1422485107 192.4585
1590 1422489501 185.9652
1591 1422493896 184.1257
1592 1422498291 187.1294
1593 1422502685 184.2887
1594 1422507080 187.0996
1595 1422511474 194.0135
1596 1422515869 189.3808
1597 1422520263 186.2770
1598 1422524658 197.2402
1599 1422529052 190.6132
1600 1422533447 185.8800
1601 1422537841 188.2975
1602 1422542236 196.4686
1603 1422546630 186.9563
1604 1422551025 188.0327
1605 1422555419 191.6062
1606 1422559814 190.4720
1607 1422564208 196.5570
1608 1422568603 190.3599
1609 1422572998 192.0355
1610 1422577392 186.8139
1611 1422581787 186.7204
1612 1422586181 185.9362
1613 1422590576 186.7062
1614 1422594970 187.1653
1615 1422599365 186.6662
1616 1422603759 196.6758
1617 1422608154 196.3260
1618 1422612548 188.1888
1619 1422616943 191.0715
1620 1422621337 193.0675
1621 1422625732 202.0512
1622 1422630126 190.9890
1623 1422634521 196.6032
1624 1422638916 187.7161
1625 1422643310 194.4223
1626 1422647705 203.2968
1627 1422652099 194.1853
1628 1422656494 187.6501
1629 1422660888 191.8276
1630 1422665283 194.3080
1631 1422669677 185.4970
1632 1422674072 189.4369
1633 1422678466 192.9806
1634 1422682861 199.3695
1635 1422687255 204.1569
1636 1422691650 188.4671
1637 1422696044 197.9492
1638 1422700439 189.7054
1639 1422704833 184.7075
1640 1422709228 188.3310
1641 1422713623 188.3691
1642 1422718017 187.1499
1643 1422722412 193.5714
1644 1422726806 202.9597
1645 1422731201 188.2165
1646 1422735595 185.7881
1647 1422739990 187.0149
1648 1422744384 184.2727
1649 1422748779 189.8788
1650 1422753173 191.5265
1651 1422757568 192.4838
1652 1422761962 194.1816
1653 1422766357 209.7690
1654 1422770751 193.5381
1655 1422775146 185.7624
1656 1422779541 183.4594
1657 1422783935 186.5300
1658 1422788330 184.2036
1659 1422792724 183.7823
1660 1422797119 183.7621
1661 1422801513 190.4449
1662 1422805908 209.9276
1663 1422810302 189.1520
1664 1422814697 188.8448
1665 1422819091 190.4683
1666 1422823486 185.8637
1667 1422827880 183.6655
1668 1422832275 183.8389
1669 1422836669 185.9596
1670 1422841064 192.2153
1671 1422845458 216.3134
1672 1422849853 193.9179
1673 1422854248 185.3838
1674 1422858642 187.9769
1675 1422863037 187.7866
1676 1422867431 188.0324
1677 1422871826 188.6034
1678 1422876220 203.6376
1679 1422880615 200.8992
1680 1422885009 212.0368
1681 1422889404 195.2135
1682 1422893798 205.2033
1683 1422898193 188.6499
1684 1422902587 189.1538
1685 1422906982 189.3457
1686 1422911376 201.5626
1687 1422915771 196.0056
1688 1422920166 186.5029
1689 1422924560 213.7937
1690 1422928955 198.9289
1691 1422933349 185.4021
1692 1422937744 190.8847
1693 1422942138 189.1502
1694 1422946533 185.9224
1695 1422950927 184.2814
1696 1422955322 184.4294
1697 1422959716 185.4655
1698 1422964111 211.8497
1699 1422968505 212.2331
1700 1422972900 184.4716
1701 1422977294 184.5742
1702 1422981689 191.4617
1703 1422986083 200.1195
1704 1422990478 183.1583
1705 1422994873 185.0063
1706 1422999267 189.6423
1707 1423003662 214.9353
1708 1423008056 206.4424
1709 1423012451 185.3878
1710 1423016845 185.3111
1711 1423021240 184.8237
1712 1423025634 185.0547
1713 1423030029 184.0279
1714 1423034423 185.5552
1715 1423038818 190.7604
1716 1423043212 206.4263
1717 1423047607 215.3954
1718 1423052001 185.8648
1719 1423056396 189.1436
1720 1423060791 189.4008
1721 1423065185 186.8824
1722 1423069580 183.0370
1723 1423073974 184.4001
1724 1423078369 183.4963
1725 1423082763 199.2338
1726 1423087158 216.9883
1727 1423091552 186.5116
1728 1423095947 182.5938
1729 1423100341 182.3318
1730 1423104736 183.7379
1731 1423109130 184.6114
1732 1423113525 182.4959
1733 1423117919 180.2576
1734 1423122314 201.6151
1735 1423126708 225.7258
1736 1423131103 187.6025
1737 1423135498 181.9175
1738 1423139892 181.0475
1739 1423144287 181.4607
1740 1423148681 183.4780
1741 1423153076 184.7765
1742 1423157470 181.6008
1743 1423161865 191.4675
1744 1423166259 230.1995
1745 1423170654 185.4407
1746 1423175048 179.6082
1747 1423179443 181.7951
1748 1423183837 187.2827
1749 1423188232 181.0949
1750 1423192626 180.8837
1751 1423197021 182.3828
1752 1423201416 206.2702
1753 1423205810 225.7585
1754 1423210205 187.5750
1755 1423214599 176.8224
1756 1423218994 177.0359
1757 1423223388 178.7407
1758 1423227783 180.5338
1759 1423232177 176.5803
1760 1423236572 179.4985
1761 1423240966 184.0690
1762 1423245361 222.9872
1763 1423249755 187.9941
1764 1423254150 176.4476
1765 1423258544 175.3346
1766 1423262939 176.3798
1767 1423267333 178.0125
1768 1423271728 179.8255
1769 1423276123 182.9838
1770 1423280517 180.3448
1771 1423284912 213.2178
1772 1423289306 191.4305
1773 1423293701 177.7481
1774 1423298095 174.6905
1775 1423302490 179.0438
1776 1423306884 184.1084
1777 1423311279 174.7399
1778 1423315673 170.8938
1779 1423320068 176.8540
1780 1423324462 210.1973
1781 1423328857 191.9425
1782 1423333251 175.5821
1783 1423337646 175.4315
1784 1423342041 179.6177
1785 1423346435 210.2249
1786 1423350830 178.4857
1787 1423355224 171.5862
1788 1423359619 174.6029
1789 1423364013 202.7065
1790 1423368408 198.4962
1791 1423372802 172.4477
1792 1423377197 172.1770
1793 1423381591 173.5373
1794 1423385986 172.8932
1795 1423390380 172.0929
1796 1423394775 173.7443
1797 1423399169 179.5187
1798 1423403564 196.1197
1799 1423407958 195.2183
1800 1423412353 175.8353
1801 1423416748 178.7780
1802 1423421142 174.9929
1803 1423425537 177.4290
1804 1423429931 178.5343
1805 1423434326 173.7736
1806 1423438720 174.9028
1807 1423443115 192.8300
1808 1423447509 197.0786
1809 1423451904 177.0799
1810 1423456298 177.8473
1811 1423460693 174.8792
1812 1423465087 176.0429
1813 1423469482 175.1051
1814 1423473876 174.4035
1815 1423478271 177.0880
1816 1423482666 191.0298
1817 1423487060 213.7020
1818 1423491455 192.1325
1819 1423495849 175.6525
1820 1423500244 176.5684
1821 1423504638 185.0049
1822 1423509033 176.6180
1823 1423513427 173.5384
1824 1423517822 181.1788
1825 1423522216 183.6327
1826 1423526611 199.6135
1827 1423531005 179.2006
1828 1423535400 179.2057
1829 1423539794 178.7606
1830 1423544189 178.1902
1831 1423548583 188.0358
1832 1423552978 182.5467
1833 1423557373 175.7550
1834 1423561767 194.7166
1835 1423566162 208.5536
1836 1423570556 179.3878
1837 1423574951 174.6298
1838 1423579345 174.4042
1839 1423583740 176.4297
1840 1423588134 176.7896
1841 1423592529 175.2253
1842 1423596923 179.7522
1843 1423601318 177.7733
1844 1423605712 183.8792
1845 1423610107 180.1745
1846 1423614501 173.0059
1847 1423618896 169.8225
1848 1423623291 169.3851
1849 1423627685 170.5133
1850 1423632080 168.2463
1851 1423636474 166.4350
1852 1423640869 164.2072
1853 1423645263 174.4062
1854 1423649658 165.2471
1855 1423654052 162.7599
1856 1423658447 163.1238
1857 1423662841 160.6452
1858 1423667236 159.3803
1859 1423671630 163.3449
1860 1423676025 157.4400
1861 1423680419 154.4157
1862 1423684814 158.7381
1863 1423689208 157.8038
1864 1423693603 149.5141
1865 1423697998 148.0389
1866 1423702392 150.6059
1867 1423706787 154.3935
1868 1423711181 142.8996
1869 1423715576 142.1245
1870 1423719970 141.5151
1871 1423724365 140.0088
1872 1423728759 138.2609
1873 1423733154 140.7971
1874 1423737548 134.3875
1875 1423741943 133.6099
1876 1423746337 131.1344
1877 1423750732 125.7252
1878 1423755126 122.4571
1879 1423759521 121.3239
1880 1423763916 118.0347
1881 1423768310 116.6487
1882 1423772705 115.7590
1883 1423777099 123.6992
1884 1423781494 115.5715
1885 1423785888 107.5463
1886 1423790283 106.0271
1887 1423794677 108.1472
1888 1423799072 101.6448
1889 1423803466 98.1746
1890 1423807861 95.9313
1891 1423812255 93.0254
1892 1423816650 90.1589
1893 1423821044 87.6976
1894 1423825439 86.3106
1895 1423829833 83.6227
1896 1423834228 81.6877
1897 1423838623 79.7654
1898 1423843017 77.3295
1899 1423847412 77.4786
1900 1423851806 78.1564
1901 1423856201 73.1168
1902 1423860595 68.2804
1903 1423864990 65.1553
1904 1423869384 63.8981
1905 1423873779 60.8832
1906 1423878173 58.5397
1907 1423882568 57.5266
1908 1423886962 56.2475
1909 1423891357 55.8215
1910 1423895751 51.5787
1911 1423900146 48.8427
1912 1423904541 48.0428
1913 1423908935 44.1904
1914 1423913330 42.3656
1915 1423917724 41.0504
1916 1423922119 39.2753
1917 1423926513 38.6066
1918 1423930908 35.3116
1919 1423935302 33.6049
1920 1423939697 32.1939
1921 1423944091 30.6556
1922 1423948486 29.1819
1923 1423952880 28.0414
1924 1423957275 26.7269
1925 1423961669 25.4144
1926 1423966064 25.1638
1927 1423970458 22.5746
1928 1423974853 21.9048
1929 1423979248 20.7531
1930 1423983642 20.3492
1931 1423988037 19.1360
1932 1423992431 16.9033
1933 1423996826 16.0437
1934 1424001220 15.0926
1935 1424005615 15.7095
1936 1424010009 13.4490
1937 1424014404 12.1255
1938 1424018798 11.4791
1939 1424023193 10.8243
1940 1424027587 10.0237
1941 1424031982 9.4244
1942 1424036376 8.8196
1943 1424040771 8.4555
1944 1424045166 8.4105
1945 1424049560 7.1306
1946 1424053955 6.2832
1947 1424058349 5.9479
1948 1424062744 5.5256
1949 1424067138 5.6466
1950 1424071533 4.8268
1951 1424075927 4.1910
1952 1424080322 3.9043
1953 1424084716 4.1922
1954 1424089111 3.4941
1955 1424093505 3.0346
1956 1424097900 2.7636
1957 1424102294 2.5760
1958 1424106689 2.2382
1959 1424111083 2.0118
1960 1424115478 1.8344
1961 1424119873 1.6549
1962 1424124267 1.7490
1963 1424128662 1.6110
1964 1424133056 1.2391
1965 1424137451 1.1126
1966 1424141845 0.9890
1967 1424146240 0.8694
1968 1424150634 0.7410
1969 1424155029 0.6522
1970 1424159423 0.5966
1971 1424163818 0.6044
1972 1424168212 0.5144
1973 1424172607 0.3858
1974 1424177001 0.3403
1975 1424181396 0.2893
1976 1424185791 0.2502
1977 1424190185 0.2231
1978 1424194580 0.1833
1979 1424198974 0.1495
1980 1424203369 0.1441
1981 1424207763 0.1244
1982 1424212158 0.0867
1983 1424216552 0.0711
1984 1424220947 0.0593
1985 1424225341 0.0473
1986 1424229736 0.0367
1987 1424234130 0.0286
1988 1424238525 0.0219
1989 1424242919 0.0178
1990 1424247314 0.0145
1991 1424251708 0.0099
1992 1424256103 0.0075
1993 1424260498 0.0061
1994 1424264892 0.0052
1995 1424269287 0.0049
1996 1424273681 0.0050
1997 1424278076 0.0056
1998 1424282470 0.0066
1999 1424286865 0.0079
2000 1424291259 0.0086
2001 1424295654 0.0101
2002 1424300048 0.0116
2003 1424304443 0.0130
2004 1424308837 0.0148
2005 1424313232 0.0169
2006 1424317626 0.0179
2007 1424322021 0.0200
2008 1424326416 0.0232
2009 1424330810 0.0221
2010 1424335205 0.0229
2011 1424339599 0.0243
2012 1424343994 0.0257
2013 1424348388 0.0262
2014 1424352783 0.0275
2015 1424357177 0.0289
2016 1424361572 0.0293
2017 1424365966 0.0331
2018 1424370361 0.0300
2019 1424374755 0.0300
2020 1424379150 0.0306
2021 1424383544 0.0315
2022 1424387939 0.0315
2023 1424392333 0.0320
2024 1424396728 0.0316
2025 1424401123 0.0331
2026 1424405517 0.0357
2027 1424409912 0.0329
2028 1424414306 0.0324
2029 1424418701 0.0331
2030 1424423095 0.0334
2031 1424427490 0.0335
2032 1424431884 0.0321
2033 1424436279 0.0316
2034 1424440673 0.0318
2035 1424445068 0.0336
2036 1424449462 0.0319
2037 1424453857 0.0315
2038 1424458251 0.0310
2039 1424462646 0.0310
2040 1424467041 0.0316
2041 1424471435 0.0304
2042 1424475830 0.0304
2043 1424480224 0.0313
2044 1424484619 0.0314
2045 1424489013 0.0309
2046 1424493408 0.0301
2047 1424497802 0.0300
